10/30/2025	11:20 AM	nsmps
Lower Voltage Limit [V]	Upper Voltage Limit [V]	# of Bins/Scan	One-Way Scan Time [s]	Plumb Time [s]	Voltage Update Interval [ms]	UCPC Aerosol Flow Rate [cm^3/s]	Aerosol Flow Rate [LPM]	Sheath Air Flow Rate [LPM]	Temperature [deg C]	Pressure [kPa]
10	10000	30	90.0	3.00	100	5.83	0.35	3.50	30.0	100.0
Sample Duration [s]	Bin End Voltage [V]	Count [#]	Ave Dp [nm]	Init Dp [nm]	Final Dp [nm]	dN/dDp [#/cm^3/um]	dN/dlogDp [#/cm^3]
3.01	12.62	0.00	8.75	3.90	13.59	0.00	0.00
3.00	15.89	0.00	14.44	13.59	15.29	0.00	0.00
3.01	20.01	0.00	16.25	15.29	17.21	0.00	0.00
3.01	25.20	0.00	18.29	17.21	19.37	0.00	0.00
3.01	31.75	0.00	20.60	19.37	21.82	0.00	0.00
3.02	40.02	0.00	23.21	21.82	24.59	0.00	0.00
3.01	50.41	0.00	26.16	24.59	27.73	0.00	0.00
3.00	63.48	0.00	29.50	27.73	31.28	0.00	0.00
3.01	79.97	0.00	33.29	31.28	35.31	0.00	0.00
3.00	100.69	1.00	37.59	35.31	39.88	218.11	18.88
3.00	126.79	4.00	42.48	39.88	45.08	693.83	67.87
3.00	159.66	3.00	48.05	45.08	51.02	417.95	46.24
2.90	199.53	1.00	54.29	51.02	57.56	117.15	14.65
3.00	251.27	3.00	61.43	57.56	65.29	278.39	39.38
3.01	316.45	0.00	69.74	65.29	74.18	0.00	0.00
3.00	398.50	0.00	79.31	74.18	84.43	0.00	0.00
3.01	501.96	2.00	90.36	84.43	96.29	105.67	21.99
3.01	632.17	2.00	103.18	96.29	110.07	88.93	21.13
3.00	796.10	1.00	118.10	110.07	126.13	37.74	10.26
3.01	1002.61	1.00	135.56	126.13	144.98	32.18	10.04
3.00	1262.21	0.00	156.10	144.98	167.21	0.00	0.00
3.00	1589.28	0.00	180.41	167.21	193.60	0.00	0.00
3.00	2001.24	3.00	209.39	193.60	225.18	61.82	29.81
3.00	2519.80	3.00	244.19	225.18	263.20	53.79	30.24
3.01	3173.71	2.00	286.29	263.20	309.39	31.28	20.62
3.00	3996.07	2.00	337.57	309.39	365.76	27.47	21.35
3.01	5035.39	4.00	400.55	365.76	435.35	48.18	44.43
3.00	6341.13	1.00	478.28	435.35	521.21	10.65	11.73
3.01	7986.69	7.00	574.58	521.21	627.95	65.68	86.89
3.01	9941.07	3.00	690.67	627.95	753.39	24.82	39.47
3.01	7892.23	4.00	687.62	753.39	621.86	33.18	52.53
3.01	6266.14	4.00	569.08	621.86	516.31	37.78	49.50
3.00	4976.61	2.00	473.88	516.31	431.45	21.45	23.40
3.00	3951.85	4.00	397.11	431.45	362.76	48.61	44.45
2.90	3162.28	5.00	335.68	362.76	308.60	71.30	55.11
3.01	2510.92	5.00	285.58	308.60	262.56	78.39	51.55
3.01	1993.73	4.00	243.59	262.56	224.62	71.80	40.27
3.01	1582.83	3.00	208.86	224.62	193.10	61.88	29.76
3.00	1256.99	1.00	179.94	193.10	166.77	23.86	9.89
3.01	997.93	9.00	155.67	166.77	144.57	248.91	89.22
3.01	792.32	0.00	135.17	144.57	125.77	0.00	0.00
3.01	629.02	6.00	117.75	125.77	109.74	226.99	61.55
3.01	499.46	4.00	102.88	109.74	96.01	178.52	42.29
3.01	396.55	8.00	90.11	96.01	84.20	424.43	88.06
3.00	314.94	1.00	79.09	84.20	73.99	63.62	11.59
3.00	250.13	8.00	69.56	73.99	65.13	613.87	98.32
3.01	198.61	5.00	61.27	65.13	57.42	465.66	65.70
3.00	157.74	3.00	54.05	57.42	50.69	342.47	42.62
3.01	125.25	2.00	47.74	50.69	44.79	281.65	30.96
3.01	99.45	2.00	42.20	44.79	39.62	350.91	34.10
3.01	78.96	8.00	37.35	39.62	35.07	1765.56	151.82
3.00	62.70	2.00	33.07	35.07	31.08	561.21	42.74
3.00	49.79	7.00	29.31	31.08	27.55	2525.83	170.49
3.00	39.54	3.00	26.00	27.55	24.44	1410.69	84.44
3.01	31.39	3.00	23.07	24.44	21.69	1862.80	98.94
3.00	24.93	3.00	20.48	21.69	19.26	2511.36	118.41
2.91	19.94	6.00	18.22	19.26	17.18	7091.69	297.54
3.01	15.83	7.00	16.22	17.18	15.26	11170.60	417.24
3.00	12.57	5.00	14.42	15.26	13.57	11607.56	385.29
3.00	9.98	4.00	12.82	13.57	12.06	14021.75	413.78
